   2   1 101
    1 0.2887E+14 0.1289E+14 0.2056E+14 0.1448E+14 0.1693E+14 0.9652E+13 0.8084E+13 0.1252E+14 0.4229E+13 0.1246E+14 0.5564E+13
 0.5028E+13 0.3397E+13 0.4329E+13 0.1846E+13 0.1810E+13 0.1971E+13 0.1505E+13 0.4266E+13 0.2575E+13 0.2898E+13 0.1555E+13
 0.1363E+13 0.1270E+13 0.1472E+13 0.1587E+13 0.1586E+13 0.1318E+13 0.1374E+13 0.1310E+13 0.1282E+13 0.1168E+13 0.1221E+13
 0.1150E+13 0.1274E+13 0.1220E+13 0.1233E+13 0.1148E+13 0.1229E+13 0.1129E+13 0.1166E+13 0.1128E+13 0.1102E+13 0.1027E+13
 0.9488E+12 0.8563E+12 0.7711E+12 0.6804E+12 0.5993E+12 0.5659E+12 0.5056E+12 0.4617E+12 0.4270E+12 0.3881E+12 0.3602E+12
 0.3276E+12 0.2935E+12 0.2693E+12 0.2608E+12 0.2624E+12 0.2662E+12 0.2701E+12 0.2807E+12 0.3132E+12 0.3165E+12 0.2868E+12
 0.2463E+12 0.2191E+12 0.1968E+12 0.1771E+12 0.1580E+12 0.1403E+12 0.1246E+12 0.1104E+12 0.9715E+11 0.8522E+11 0.7355E+11
 0.6106E+11 0.4861E+11 0.3787E+11 0.2840E+11 0.2076E+11 0.1525E+11 0.1144E+11 0.8504E+10 0.6274E+10 0.4578E+10 0.3226E+10
 0.2162E+10 0.1465E+10 0.1162E+10 0.1158E+10 0.1219E+10 0.1165E+10 0.1004E+10 0.7816E+09 0.5555E+09 0.4028E+09 0.3443E+09
 0.3424E+09 0.6319E+10
    2 0.1157E+12 0.4884E+11 0.6276E+11 0.6710E+11 0.4165E+11 0.8056E+11 0.1611E+11 0.7566E+11 0.5644E+10 0.2400E+11 0.3511E+11
 0.2052E+11 0.1357E+11 0.3535E+11 0.1787E+11 0.3073E+11 0.3494E+11 0.2761E+11 0.8323E+10 0.4731E+10 0.3065E+10 0.1957E+10
 0.1289E+09 0.7998E+09 0.7545E+09 0.6820E+09 0.1237E+10 0.6624E+09 0.4709E+09 0.4455E+09 0.5308E+09 0.5089E+09 0.5169E+09
 0.5222E+09 0.4304E+09 0.4891E+09 0.5199E+09 0.4549E+09 0.5420E+09 0.5382E+09 0.4419E+09 0.5153E+09 0.5305E+09 0.6057E+09
 0.6850E+09 0.7438E+09 0.7494E+09 0.8007E+09 0.7552E+09 0.7852E+09 0.7426E+09 0.7253E+09 0.7005E+09 0.5201E+09 0.3966E+09
 0.3008E+09 0.2458E+09 0.2349E+09 0.2430E+09 0.2245E+09 0.2163E+09 0.2918E+09 0.3585E+09 0.2578E+09 0.2223E+09 0.4320E+09
 0.5551E+09 0.5566E+09 0.4725E+09 0.3965E+09 0.3788E+09 0.3495E+09 0.3030E+09 0.2651E+09 0.2182E+09 0.1694E+09 0.1425E+09
 0.1262E+09 0.1074E+09 0.9338E+08 0.7908E+08 0.5853E+08 0.4148E+08 0.3139E+08 0.2278E+08 0.1522E+08 0.1056E+08 0.7722E+07
 0.5792E+07 0.4258E+07 0.2934E+07 0.1913E+07 0.1272E+07 0.8625E+06 0.5359E+06 0.2948E+06 0.1599E+06 0.1078E+06 0.1001E+06
 0.1044E+06 0.1224E+08
    1 0.2898E+14 0.1294E+14 0.2062E+14 0.1455E+14 0.1697E+14 0.9732E+13 0.8100E+13 0.1260E+14 0.4235E+13 0.1249E+14 0.5600E+13
 0.5049E+13 0.3411E+13 0.4365E+13 0.1864E+13 0.1841E+13 0.2006E+13 0.1532E+13 0.4274E+13 0.2580E+13 0.2901E+13 0.1557E+13
 0.1363E+13 0.1270E+13 0.1473E+13 0.1587E+13 0.1587E+13 0.1319E+13 0.1374E+13 0.1311E+13 0.1283E+13 0.1168E+13 0.1222E+13
 0.1150E+13 0.1275E+13 0.1221E+13 0.1234E+13 0.1149E+13 0.1230E+13 0.1130E+13 0.1167E+13 0.1128E+13 0.1103E+13 0.1027E+13
 0.9495E+12 0.8570E+12 0.7718E+12 0.6812E+12 0.6000E+12 0.5667E+12 0.5063E+12 0.4624E+12 0.4277E+12 0.3886E+12 0.3606E+12
 0.3279E+12 0.2937E+12 0.2695E+12 0.2610E+12 0.2626E+12 0.2664E+12 0.2704E+12 0.2811E+12 0.3135E+12 0.3167E+12 0.2872E+12
 0.2468E+12 0.2196E+12 0.1972E+12 0.1775E+12 0.1583E+12 0.1406E+12 0.1249E+12 0.1107E+12 0.9737E+11 0.8539E+11 0.7370E+11
 0.6119E+11 0.4872E+11 0.3796E+11 0.2848E+11 0.2082E+11 0.1530E+11 0.1148E+11 0.8527E+10 0.6290E+10 0.4589E+10 0.3234E+10
 0.2167E+10 0.1469E+10 0.1164E+10 0.1160E+10 0.1220E+10 0.1165E+10 0.1004E+10 0.7819E+09 0.5557E+09 0.4029E+09 0.3444E+09
 0.3425E+09 0.6332E+10




 PROCESSING KE M & N SPECTRA  AT DAY      0.00 KOUNT=     48002
