   2   1  51
    1 0.2364E+13 0.1799E+13 0.1713E+13 0.1575E+13 0.1469E+13 0.1353E+13 0.1247E+13 0.1142E+13 0.1042E+13 0.9444E+12 0.8513E+12
 0.7620E+12 0.6769E+12 0.5960E+12 0.5196E+12 0.4477E+12 0.3805E+12 0.3184E+12 0.2614E+12 0.2099E+12 0.1640E+12 0.1239E+12
 0.8988E+11 0.6189E+11 0.3989E+11 0.2358E+11 0.1244E+11 0.5659E+10 0.2199E+10 0.8827E+09 0.6127E+09 0.6071E+09 0.5236E+09
 0.3559E+09 0.1987E+09 0.9743E+08 0.4464E+08 0.1993E+08 0.8878E+07 0.3997E+07 0.1840E+07 0.8761E+06 0.4415E+06 0.2400E+06
 0.1462E+06 0.1003E+06 0.7960E+05 0.6957E+05 0.6765E+05 0.6857E+05 0.1893E+09
    2 0.2326E+09 0.1838E+09 0.1722E+09 0.1587E+09 0.1473E+09 0.1357E+09 0.1248E+09 0.1142E+09 0.1040E+09 0.9421E+08 0.8483E+08
 0.7587E+08 0.6733E+08 0.5923E+08 0.5159E+08 0.4442E+08 0.3773E+08 0.3155E+08 0.2590E+08 0.2078E+08 0.1624E+08 0.1227E+08
 0.8903E+07 0.6133E+07 0.3955E+07 0.2340E+07 0.1235E+07 0.5625E+06 0.2189E+06 0.8809E+05 0.6136E+05 0.6083E+05 0.5245E+05
 0.3564E+05 0.1989E+05 0.9752E+04 0.4467E+04 0.1994E+04 0.8873E+03 0.3986E+03 0.1827E+03 0.8629E+02 0.4280E+02 0.2271E+02
 0.1332E+02 0.8776E+01 0.6675E+01 0.5663E+01 0.5386E+01 0.5394E+01 0.1879E+05
    1 0.2364E+13 0.1799E+13 0.1714E+13 0.1575E+13 0.1469E+13 0.1353E+13 0.1247E+13 0.1142E+13 0.1042E+13 0.9445E+12 0.8514E+12
 0.7621E+12 0.6770E+12 0.5961E+12 0.5196E+12 0.4477E+12 0.3806E+12 0.3184E+12 0.2614E+12 0.2099E+12 0.1640E+12 0.1239E+12
 0.8989E+11 0.6190E+11 0.3989E+11 0.2358E+11 0.1244E+11 0.5660E+10 0.2200E+10 0.8828E+09 0.6127E+09 0.6071E+09 0.5237E+09
 0.3559E+09 0.1987E+09 0.9744E+08 0.4464E+08 0.1993E+08 0.8879E+07 0.3997E+07 0.1840E+07 0.8762E+06 0.4415E+06 0.2400E+06
 0.1462E+06 0.1003E+06 0.7960E+05 0.6958E+05 0.6766E+05 0.6858E+05 0.1893E+09




 PROCESSING KE M & N SPECTRA  AT DAY      0.00 KOUNT=   4800002
